2021-11-03 06:06:20,288 [MainThread  ] [INFO ]  
A T O M   T Y P E S

IDX	TYPE	RING
1	c3	NO
2	ca	AR
3	ca	AR
4	ca	AR
5	ca	AR
6	ca	AR
7	ca	AR
8	c3	NO
9	c3	NO
10	oh	NO
11	ho	NO
12	hc	NO
13	hc	NO
14	ha	NO
15	ha	NO
16	ha	NO
17	hc	NO
18	hc	NO
19	hc	NO
20	hc	NO
21	hc	NO
22	ha	NO

C H A R G E S

IDX	CHARGE
1	-0.064979
2	-0.061278
3	-0.058294
4	-0.019907
5	0.120013
6	-0.055115
7	-0.005954
8	-0.024481
9	-0.051799
10	-0.506496
11	0.292144
12	0.026577
13	0.031423
14	0.065403
15	0.061871
16	0.061769
17	0.022987
18	0.022987
19	0.022987
20	0.026577
21	0.031423
22	0.062142

S E T T I N G   U P   C A L C U L A T I O N S

SETTING UP BOND CALCULATIONS...
SETTING UP ANGLE CALCULATIONS...
SETTING UP TORSION CALCULATIONS...
SETTING UP IMPROPER TORSION CALCULATIONS...
SETTING UP VAN DER WAALS CALCULATIONS...
SETTING UP ELECTROSTATIC CALCULATIONS...

S T E E P E S T   D E S C E N T

STEPS = 2500

STEP n       E(n)         E(n-1)    
------------------------------------
    0      50.048      ----
   10    36.21724    36.73363
   20    32.62519    32.90050
   30    30.42176    30.60740
   40    28.84022    28.98002
   50    27.60107    27.71398
   60    26.57419    26.66957
   70    25.69242    25.77532
   80    24.91809    24.99145
   90    24.22825    24.29392
  100    23.60848    23.66758
  110    23.04960    23.10303
  120    22.54147    22.59027
  130    22.07638    22.12112
  140    21.64899    21.69018
  150    21.25485    21.29289
  160    20.89018    20.92542
  170    20.55172    20.58448
  180    20.23672    20.26724
  190    19.94279    19.97131
  200    19.66791    19.69460
  210    19.41032    19.43536
  220    19.16851    19.19203
  230    18.94116    18.96329
  240    18.72713    18.74797
  250    18.52541    18.54506
  260    18.33510    18.35365
  270    18.15542    18.17293
  280    17.98563    18.00219
  290    17.82510    17.84076
  300    17.67323    17.68805
  310    17.52948    17.54351
  320    17.39335    17.40664
  330    17.26438    17.27697
  340    17.14215    17.15408
  350    17.02625    17.03757
  360    16.91633    16.92707
  370    16.81204    16.82223
  380    16.71305    16.72272
  390    16.61907    16.62825
  400    16.52981    16.53853
  410    16.44502    16.45331
  420    16.36444    16.37232
  430    16.28785    16.29534
  440    16.21503    16.22215
  450    16.14577    16.15255
  460    16.07989    16.08634
  470    16.01721    16.02334
  480    15.95755    15.96338
  490    15.90076    15.90631
  500    15.84668    15.85198
  510    15.79519    15.80023
  520    15.74614    15.75094
  530    15.69941    15.70398
  540    15.65488    15.65924
  550    15.61245    15.61660
  560    15.57200    15.57596
  570    15.53344    15.53721
  580    15.49667    15.50027
  590    15.46160    15.46504
  600    15.42816    15.43144
  610    15.39626    15.39939
  620    15.36583    15.36881
  630    15.33679    15.33963
  640    15.30908    15.31179
  650    15.28263    15.28522
  660    15.25739    15.25986
  670    15.23329    15.23565
  680    15.21029    15.21254
  690    15.18832    15.19047
  700    15.16735    15.16940
  710    15.14731    15.14928
  720    15.12818    15.13005
  730    15.10990    15.11169
  740    15.09243    15.09415
  750    15.07575    15.07738
  760    15.05980    15.06137
  770    15.04456    15.04606
  780    15.03000    15.03143
  790    15.01607    15.01744
  800    15.00276    15.00406
  810    14.99002    14.99127
  820    14.97785    14.97904
  830    14.96620    14.96734
  840    14.95506    14.95615
  850    14.94439    14.94544
  860    14.93419    14.93519
  870    14.92442    14.92538
  880    14.91506    14.91598
  890    14.90611    14.90699
  900    14.89753    14.89837
  910    14.88931    14.89011
  920    14.88143    14.88220
  930    14.87387    14.87462
  940    14.86663    14.86734
  950    14.85968    14.86037
  960    14.85302    14.85367
  970    14.84662    14.84725
  980    14.84048    14.84108
  990    14.83458    14.83516
 1000    14.82891    14.82946
 1010    14.82345    14.82399
 1020    14.81821    14.81873
 1030    14.81316    14.81366
 1040    14.80830    14.80878
 1050    14.80362    14.80408
 1060    14.79911    14.79956
 1070    14.79476    14.79519
 1080    14.79056    14.79097
 1090    14.78650    14.78690
 1100    14.78258    14.78297
 1110    14.77879    14.77916
 1120    14.77512    14.77548
 1130    14.77156    14.77191
 1140    14.76817    14.76848
 1150    14.76611    14.76628
 1160    14.76451    14.76467
 1170    14.76294    14.76309
 1180    14.76141    14.76156
 1190    14.75991    14.76006
 1200    14.75845    14.75860
 1210    14.75702    14.75716
 1220    14.75562    14.75576
 1230    14.75426    14.75439
 1240    14.75292    14.75305
 1250    14.75161    14.75174
 1260    14.75032    14.75045
 1270    14.74906    14.74919
 1280    14.74783    14.74795
 1290    14.74662    14.74674
 1300    14.74544    14.74556
 1310    14.74428    14.74439
 1320    14.74314    14.74325
 1330    14.74202    14.74213
 1340    14.74092    14.74103
 1350    14.73984    14.73994
 1360    14.73878    14.73888
 1370    14.73773    14.73784
 1380    14.73671    14.73681
 1390    14.73570    14.73580
 1400    14.73470    14.73480
 1410    14.73372    14.73382
 1420    14.73276    14.73286
 1430    14.73181    14.73191
 1440    14.73088    14.73097
 1450    14.72995    14.73004
 1460    14.72904    14.72913
 1470    14.72814    14.72823
 1480    14.72725    14.72734
 1490    14.72637    14.72646
 1500    14.72551    14.72560
 1510    14.72493    14.72498
 1520    14.72451    14.72455
 1530    14.72409    14.72413
 1540    14.72367    14.72372
 1550    14.72327    14.72331
 1560    14.72287    14.72291
 1570    14.72247    14.72251
 1580    14.72208    14.72212
 1590    14.72170    14.72173
 1600    14.72132    14.72135
 1610    14.72094    14.72098
 1620    14.72057    14.72061
 1630    14.72021    14.72024
 1640    14.71985    14.71988
 1650    14.71949    14.71953
 1660    14.71914    14.71918
 1670    14.71880    14.71883
 1680    14.71845    14.71849
 1690    14.71812    14.71815
 1700    14.71778    14.71782
 1710    14.71745    14.71749
 1720    14.71713    14.71716
 1730    14.71681    14.71684
 1740    14.71649    14.71652
 1750    14.71617    14.71621
 1760    14.71586    14.71589
 1770    14.71556    14.71559
 1780    14.71525    14.71528
 1790    14.71495    14.71498
 1800    14.71466    14.71469
 1810    14.71436    14.71439
 1820    14.71407    14.71410
 1830    14.71378    14.71381
 1840    14.71350    14.71353
 1850    14.71324    14.71326
 1860    14.71307    14.71309
 1870    14.71292    14.71294
 1880    14.71278    14.71279
 1890    14.71263    14.71265
 1900    14.71249    14.71250
 1910    14.71235    14.71236
 1920    14.71221    14.71222
 1930    14.71207    14.71208
 1940    14.71193    14.71195
 1950    14.71180    14.71181
 1960    14.71167    14.71168
 1970    14.71154    14.71155
 1980    14.71141    14.71142
 1990    14.71128    14.71129
 2000    14.71115    14.71117
 2010    14.71103    14.71104
 2020    14.71091    14.71092
 2030    14.71079    14.71080
 2040    14.71067    14.71068
 2050    14.71055    14.71057
 2060    14.71044    14.71045
 2070    14.71032    14.71034
 2080    14.71021    14.71022
 2090    14.71010    14.71011
 2100    14.70999    14.71000
 2110    14.70988    14.70989
 2120    14.70978    14.70979
 2130    14.70967    14.70968
 2140    14.70957    14.70958
 2150    14.70947    14.70948
 2160    14.70937    14.70938
 2170    14.70927    14.70928
 2180    14.70917    14.70918
 2190    14.70908    14.70909
 2200    14.70900    14.70900
 2210    14.70894    14.70895
 2220    14.70889    14.70889
 2230    14.70883    14.70884
 2240    14.70878    14.70879
 2250    14.70873    14.70874
 2260    14.70868    14.70869
 2270    14.70863    14.70864
 2280    14.70858    14.70859
 2290    14.70854    14.70854
 2300    14.70849    14.70849
 2310    14.70844    14.70845
 2320    14.70840    14.70840
 2330    14.70835    14.70836
 2340    14.70831    14.70831
 2350    14.70826    14.70827
 2360    14.70822    14.70823
 2370    14.70818    14.70818
 2380    14.70814    14.70814
 2390    14.70810    14.70810
 2400    14.70806    14.70806
 2410    14.70802    14.70802
 2420    14.70798    14.70798
 2430    14.70794    14.70794
 2440    14.70790    14.70791
 2450    14.70786    14.70787
 2460    14.70783    14.70783
 2470    14.70779    14.70779
 2480    14.70775    14.70776
 2490    14.70772    14.70772
 2500    14.70768    14.70769
Time: 0.332334seconds. Iterations per second: 7525.56

